# Cu foil at 10K
# cu10k.dat    : this file is part of the uwxafs 3.0 distribution
# data taken at NSLS beamline X-11A Sept 1992
# by M Newville, B Ravel, and Y Zhang
# foil of 99.999 Cu rolled and annealled to ~12 microns
# sample prepared by M Newville
# From X-11A :
# 2-SI111 HC/2D= 1977.260 STPDEG=6400. STPMMZ= 40.
# FOCUS=F TRANSLT=F  E0= 8980.0 NREG= 3 NPTS= 611 NSCLRS= 3 EF= .0
# SRB=     -193.7    -43.5     30.0   2381.3
# DEL=         10.020     .483     .050K
# SEC=             1.000    1.000    1.000
# DETECTORSI0      I       If
# GAINS           8       7      10
# OFFSETS     51284   50016   48319
#------------------------
#   k         chi
  0.0000000        0.0000000
  0.50000000E-01    0.0000000
  0.10000000        0.0000000
  0.15000000        0.0000000
  0.20000000        0.0000000
  0.25000000        0.0000000
  0.30000000        0.0000000
  0.35000000        0.0000000
  0.40000000        0.0000000
  0.45000000        0.0000000
  0.50000000        0.0000000
  0.55000000       0.32909166
  0.60000000       0.29826471
  0.65000000       0.26334920
  0.70000000       0.23552008
  0.75000000       0.20189781
  0.80000000       0.16326595
  0.85000000       0.12160301
  0.90000000       0.77526801E-01
  0.95000000       0.33099037E-01
  1.0000000      -0.82631198E-02
  1.0500000      -0.41755284E-01
  1.1000000      -0.70008169E-01
  1.1500000      -0.92859383E-01
  1.2000000      -0.10891339
  1.2500000      -0.12145107
  1.3000000      -0.13655183
  1.3500000      -0.15173213
  1.4000000      -0.15786712
  1.4500000      -0.16130637
  1.5000000      -0.15901734
  1.5500000      -0.14619045
  1.6000000      -0.11447839
  1.6500000      -0.84789223E-01
  1.7000000      -0.37558807E-01
  1.7500000      -0.35010867E-02
  1.8000000       0.36712671E-01
  1.8500000       0.86466167E-01
  1.9000000       0.11137096
  1.9500000       0.11888172
  2.0000000       0.10325582
  2.0500000       0.75675619E-01
  2.1000000       0.45207023E-01
  2.1500000       0.14343746E-01
  2.2000000      -0.50814483E-02
  2.2500000      -0.14427695E-01
  2.3000000      -0.73892149E-02
  2.3500000       0.23040726E-01
  2.4000000       0.58163506E-01
  2.4500000       0.95348639E-01
  2.5000000       0.11428315
  2.5500000       0.98414734E-01
  2.6000000       0.67562636E-01
  2.6500000       0.34875721E-01
  2.7000000       0.25162728E-04
  2.7500000      -0.27188764E-01
  2.8000000      -0.50367729E-01
  2.8500000      -0.71629472E-01
  2.9000000      -0.83010450E-01
  2.9500000      -0.82073604E-01
  3.0000000      -0.77114784E-01
  3.0500000      -0.68017661E-01
  3.1000000      -0.57070521E-01
  3.1500000      -0.36471784E-01
  3.2000000      -0.14608455E-01
  3.2500000       0.26079482E-02
  3.3000000       0.26651997E-01
  3.3500000       0.51350917E-01
  3.4000000       0.70817267E-01
  3.4500000       0.85368084E-01
  3.5000000       0.85994576E-01
  3.5500000       0.70689440E-01
  3.6000000       0.43916398E-01
  3.6500000       0.16393481E-01
  3.7000000      -0.13955085E-01
  3.7500000      -0.35690159E-01
  3.8000000      -0.50161282E-01
  3.8500000      -0.58961077E-01
  3.9000000      -0.59459928E-01
  3.9500000      -0.53077228E-01
  4.0000000      -0.42079427E-01
  4.0500000      -0.33841333E-01
  4.1000000      -0.33349499E-01
  4.1500000      -0.38192172E-01
  4.2000000      -0.40230900E-01
  4.2500000      -0.33266263E-01
  4.3000000      -0.20001057E-01
  4.3500000      -0.10696280E-01
  4.4000000      -0.10253602E-01
  4.4500000      -0.11540133E-01
  4.5000000      -0.63407223E-02
  4.5500000       0.62000548E-02
  4.6000000       0.20246200E-01
  4.6500000       0.30666224E-01
  4.7000000       0.38525375E-01
  4.7500000       0.47583802E-01
  4.8000000       0.60618401E-01
  4.8500000       0.76583281E-01
  4.9000000       0.90952302E-01
  4.9500000       0.97051827E-01
  5.0000000       0.91123716E-01
  5.0500000       0.73214130E-01
  5.1000000       0.45002666E-01
  5.1500000       0.17695884E-01
  5.2000000      -0.30637797E-02
  5.2500000      -0.20776636E-01
  5.3000000      -0.32219201E-01
  5.3500000      -0.34911983E-01
  5.4000000      -0.40399902E-01
  5.4500000      -0.59731778E-01
  5.5000000      -0.82177496E-01
  5.5500000      -0.99074120E-01
  5.6000000      -0.10511012
  5.6500000      -0.98056762E-01
  5.7000000      -0.82630862E-01
  5.7500000      -0.62156057E-01
  5.8000000      -0.38638223E-01
  5.8500000      -0.15167591E-01
  5.9000000       0.17760434E-02
  5.9500000       0.78703020E-02
  6.0000000       0.32027508E-02
  6.0500000      -0.48205325E-02
  6.1000000      -0.82229400E-02
  6.1500000       0.63889871E-02
  6.2000000       0.46698559E-01
  6.2500000       0.10223975
  6.3000000       0.13498077
  6.3500000       0.13993898
  6.4000000       0.12921242
  6.4500000       0.11743631
  6.5000000       0.10461150
  6.5500000       0.80386795E-01
  6.6000000       0.46414597E-01
  6.6500000       0.39240861E-02
  6.7000000      -0.41392890E-01
  6.7500000      -0.87215026E-01
  6.8000000      -0.12644796
  6.8500000      -0.15104481
  6.9000000      -0.15383966
  6.9500000      -0.13247788
  7.0000000      -0.94047280E-01
  7.0500000      -0.49024376E-01
  7.1000000      -0.46220446E-02
  7.1500000       0.25036572E-01
  7.2000000       0.41866806E-01
  7.2500000       0.40387417E-01
  7.3000000       0.24818717E-01
  7.3500000       0.10846777E-01
  7.4000000       0.46609026E-02
  7.4500000       0.28242365E-02
  7.5000000      -0.81370390E-02
  7.5500000      -0.24016274E-01
  7.6000000      -0.25446683E-01
  7.6500000      -0.25008794E-02
  7.7000000       0.41633336E-01
  7.7500000       0.84164504E-01
  7.8000000       0.98998002E-01
  7.8500000       0.10143320
  7.9000000       0.95489007E-01
  7.9500000       0.77837483E-01
  8.0000000       0.45366428E-01
  8.0500000       0.60320985E-02
  8.1000000      -0.29601913E-01
  8.1500000      -0.55817544E-01
  8.2000000      -0.70372388E-01
  8.2500000      -0.75679519E-01
  8.3000000      -0.69972480E-01
  8.3500000      -0.54334168E-01
  8.4000000      -0.44013748E-01
  8.4500000      -0.42698337E-01
  8.5000000      -0.38505060E-01
  8.5500000      -0.33603643E-01
  8.6000000      -0.30050348E-01
  8.6500000      -0.20482628E-01
  8.7000000      -0.44813765E-02
  8.7500000       0.95115370E-02
  8.8000000       0.19229952E-01
  8.8500000       0.24653260E-01
  8.9000000       0.26455537E-01
  8.9500000       0.28147922E-01
  9.0000000       0.34657945E-01
  9.0500000       0.43430258E-01
  9.1000000       0.54127136E-01
  9.1500000       0.60710708E-01
  9.2000000       0.50583460E-01
  9.2500000       0.31499277E-01
  9.3000000       0.13570788E-01
  9.3500000      -0.55180263E-02
  9.4000000      -0.21214853E-01
  9.4500000      -0.25616924E-01
  9.5000000      -0.19370898E-01
  9.5500000      -0.86325640E-02
  9.6000000      -0.21677595E-02
  9.6500000      -0.88935629E-02
  9.7000000      -0.26309984E-01
  9.7500000      -0.45144624E-01
  9.8000000      -0.48528236E-01
  9.8500000      -0.34665286E-01
  9.9000000      -0.24224376E-01
  9.9500000      -0.21625255E-01
  10.000000      -0.13973464E-01
  10.050000      -0.55282360E-02
  10.100000      -0.56054280E-03
  10.150000       0.49125555E-02
  10.200000       0.10592168E-01
  10.250000       0.15895739E-01
  10.300000       0.20783495E-01
  10.350000       0.24621034E-01
  10.400000       0.27468952E-01
  10.450000       0.30103488E-01
  10.500000       0.31996085E-01
  10.550000       0.30893582E-01
  10.600000       0.23763534E-01
  10.650000       0.98584879E-02
  10.700000      -0.61469814E-02
  10.750000      -0.16623453E-01
  10.800000      -0.18146988E-01
  10.850000      -0.14590793E-01
  10.900000      -0.73859962E-02
  10.950000       0.72420995E-03
  11.000000       0.49510690E-02
  11.050000       0.39374344E-02
  11.100000      -0.24261744E-02
  11.150000      -0.13832161E-01
  11.200000      -0.21585974E-01
  11.250000      -0.19000653E-01
  11.300000      -0.13863061E-01
  11.350000      -0.14990947E-01
  11.400000      -0.18290462E-01
  11.450000      -0.18275080E-01
  11.500000      -0.15233899E-01
  11.550000      -0.85361200E-02
  11.600000      -0.26011427E-03
  11.650000       0.76359090E-02
  11.700000       0.17004523E-01
  11.750000       0.27282253E-01
  11.800000       0.34974840E-01
  11.850000       0.37464098E-01
  11.900000       0.33684319E-01
  11.950000       0.21764939E-01
  12.000000       0.35868669E-02
  12.050000      -0.10229501E-01
  12.100000      -0.13863368E-01
  12.150000      -0.13101361E-01
  12.200000      -0.11764302E-01
  12.250000      -0.10277596E-01
  12.300000      -0.71602552E-02
  12.350000      -0.35707775E-02
  12.400000      -0.24591039E-02
  12.450000      -0.34283164E-02
  12.500000      -0.32257077E-02
  12.550000      -0.30819910E-02
  12.600000      -0.63586997E-02
  12.650000      -0.10874664E-01
  12.700000      -0.10994986E-01
  12.750000      -0.92813915E-02
  12.800000      -0.69750563E-02
  12.850000      -0.27812548E-02
  12.900000       0.16525276E-03
  12.950000       0.15096973E-02
  13.000000       0.40842784E-02
  13.050000       0.90121979E-02
  13.100000       0.12930912E-01
  13.150000       0.12697922E-01
  13.200000       0.10594826E-01
  13.250000       0.83329460E-02
  13.300000       0.68414401E-02
  13.350000       0.59240635E-02
  13.400000       0.29517314E-02
  13.450000      -0.10215702E-02
  13.500000      -0.28626675E-02
  13.550000      -0.30901107E-02
  13.600000      -0.19113126E-02
  13.650000      -0.66013299E-03
  13.700000      -0.26789100E-02
  13.750000      -0.49563653E-02
  13.800000      -0.39257849E-02
  13.850000      -0.27419824E-02
  13.900000      -0.36229305E-02
  13.950000      -0.53171255E-02
  14.000000      -0.57890826E-02
  14.050000      -0.66749719E-02
  14.100000      -0.73281560E-02
  14.150000      -0.52420559E-02
  14.200000      -0.25133940E-02
  14.250000       0.12353643E-02
  14.300000       0.50246874E-02
  14.350000       0.63616869E-02
  14.400000       0.71079175E-02
  14.450000       0.67570566E-02
  14.500000       0.38173115E-02
  14.550000       0.35303312E-03
  14.600000      -0.32808220E-03
  14.650000       0.16100709E-02
  14.700000       0.36806005E-02
  14.750000       0.52087619E-02
  14.800000       0.57209765E-02
  14.850000       0.38064630E-02
  14.900000       0.64470231E-03
  14.950000      -0.18991619E-02
  15.000000      -0.36753428E-02
  15.050000      -0.39963630E-02
  15.100000      -0.35398137E-02
  15.150000      -0.38401817E-02
  15.200000      -0.42651652E-02
  15.250000      -0.42811466E-02
  15.300000      -0.43818624E-02
  15.350000      -0.36839548E-02
  15.400000      -0.28210239E-02
  15.450000      -0.25053081E-02
  15.500000      -0.10838072E-02
  15.550000       0.13245280E-02
  15.600000       0.29783812E-02
  15.650000       0.36002442E-02
  15.700000       0.37490166E-02
  15.750000       0.33458308E-02
  15.800000       0.27911654E-02
  15.850000       0.27000733E-02
  15.900000       0.23784610E-02
  15.950000       0.10660302E-02
  16.000000      -0.21932021E-03
  16.050000      -0.74995800E-03
  16.100000      -0.52654333E-03
  16.150000       0.42820640E-03
  16.200000       0.14623498E-02
  16.250000       0.12089332E-02
  16.300000      -0.43771533E-04
  16.350000       0.17270020E-03
  16.400000       0.48993471E-03
  16.450000      -0.43288237E-03
  16.500000      -0.15328457E-02
  16.550000      -0.21951264E-02
  16.600000      -0.22508064E-02
  16.650000      -0.22754684E-02
  16.700000      -0.28073180E-02
  16.750000      -0.30355263E-02
  16.800000      -0.26082863E-02
  16.850000      -0.12120137E-02
  16.900000       0.11504769E-02
  16.950000       0.24688804E-02
  17.000000       0.24675139E-02
  17.050000       0.20326429E-02
  17.100000       0.17843592E-02
  17.150000       0.19096518E-02
  17.200000       0.17133541E-02
  17.250000       0.10641634E-02
  17.300000       0.49558051E-03
  17.350000      -0.38594915E-04
  17.400000      -0.32957821E-03
  17.450000      -0.17115606E-03
  17.500000      -0.28419667E-03
  17.550000      -0.44605901E-03
  17.600000       0.22015496E-03
  17.650000       0.74219635E-03
  17.700000       0.26906297E-03
  17.750000      -0.47187640E-03
  17.800000      -0.12080291E-02
  17.850000      -0.16531642E-02
  17.900000      -0.18294000E-02
  17.950000      -0.19283500E-02
  18.000000      -0.17625830E-02
  18.050000      -0.12130761E-02
  18.100000      -0.33898976E-03
  18.150000       0.47558769E-03
  18.200000       0.87833510E-03
  18.250000       0.63597987E-03
  18.300000       0.12240174E-03
  18.350000       0.30407739E-03
  18.400000       0.60618483E-03
  18.450000       0.59829375E-03
  18.500000       0.87003526E-03
  18.550000       0.98171324E-03
  18.600000       0.78031314E-03
  18.650000       0.89919935E-03
  18.700000       0.10241512E-02
  18.750000       0.81048796E-03
  18.800000       0.37891349E-03
  18.850000      -0.16895125E-03
  18.900000      -0.59462076E-03
  18.950000      -0.79807946E-03
  19.000000      -0.74156152E-03
  19.050000      -0.43843623E-03
  19.100000      -0.28097799E-03
  19.150000      -0.35796494E-03
  19.200000      -0.56049628E-03
  19.250000      -0.77987041E-03
  19.300000      -0.90701351E-03
  19.350000      -0.75164400E-03
  19.400000      -0.16034147E-03
  19.450000       0.41370831E-03
  19.500000       0.38688252E-03
  19.550000      -0.11995244E-03
  19.600000      -0.18436949E-03
  19.650000      -0.69048409E-04
  19.700000      -0.17844095E-03
  19.750000       0.11492138E-03
  19.800000       0.37884362E-03
  19.850000       0.43765899E-03
  19.900000       0.61796415E-03
  19.950000       0.69471783E-03
  20.000000       0.74220219E-03
  20.050000       0.72732600E-03
  20.100000       0.53357648E-03
  20.150000       0.32883686E-03
  20.200000       0.19342864E-03
  20.250000       0.12433398E-03
  20.300000       0.83346716E-04
  20.350000      -0.92514084E-04
  20.400000      -0.36275456E-03
  20.450000      -0.52415060E-03
  20.500000      -0.55959664E-03
  20.550000      -0.53837046E-03
  20.600000      -0.41330739E-03
  20.650000      -0.12849023E-03
  20.700000      -0.47110211E-04
  20.750000      -0.13207121E-03
  20.800000      -0.26657972E-03
  20.850000      -0.24605301E-03
  20.900000      -0.56107073E-06
  20.950000       0.12484211E-03
  21.000000       0.14734552E-03
  21.050000       0.65090018E-04
  21.100000      -0.43151800E-04
  21.150000      -0.10093257E-03
  21.200000      -0.75324516E-04
  21.250000       0.62110268E-04
  21.300000       0.20006356E-03
  21.350000       0.17097546E-03
  21.400000       0.22705765E-03
  21.450000       0.30221743E-03
  21.500000       0.25931410E-03
  21.550000       0.16563263E-03
  21.600000       0.62171805E-04
  21.650000      -0.84228544E-04
  21.700000      -0.34124125E-03
  21.750000      -0.40690151E-03
  21.800000      -0.43711231E-03
  21.850000      -0.43056807E-03
  21.900000      -0.20520286E-03
  21.950000       0.51788760E-04
  22.000000       0.13744994E-03
  22.050000       0.77046417E-05
  22.100000       0.79915523E-04
  22.150000       0.14394376E-03
  22.200000       0.10585941E-03
  22.250000       0.14429290E-03
  22.300000       0.76733640E-04
  22.350000       0.11368857E-03
  22.400000       0.67238958E-04
  22.450000       0.23068492E-04
  22.500000       0.53830083E-04
  22.550000       0.10088462E-03
  22.600000       0.10971972E-03
  22.650000       0.96939594E-04
  22.700000       0.16614162E-03
  22.750000       0.14176805E-03
  22.800000       0.10016493E-03
  22.850000       0.41378190E-04
  22.900000      -0.98311959E-04
  22.950000      -0.12671640E-03
  23.000000      -0.19787529E-03
  23.050000      -0.19220612E-03
  23.100000      -0.18016907E-03
  23.150000      -0.24355805E-03
  23.200000      -0.21139154E-03
  23.250000      -0.19095241E-03
  23.300000      -0.17137536E-03
  23.350000      -0.27489790E-04
  23.400000      -0.12043738E-03
  23.450000      -0.97930544E-04
  23.500000      -0.27443554E-04
  23.550000      -0.99650563E-04
  23.600000       0.25442134E-03
  23.650000       0.24104123E-03
  23.700000       0.19829637E-04
  23.750000       0.32439740E-04
  23.800000       0.67546257E-04
  23.850000       0.89977695E-04
  23.900000       0.74189836E-04
  23.950000       0.67850976E-04
  24.000000       0.73337661E-04
  24.050000       0.10564429E-03
  24.100000       0.95060938E-04
  24.150000       0.19899891E-05
  24.200000       0.13393143E-03
  24.250000       0.83437226E-04
  24.300000      -0.27099519E-04
  24.350000      -0.10672028E-06
  24.400000       0.32090454E-04
  24.450000       0.33378140E-04
  24.500000      -0.12952685E-04
  24.550000      -0.28542611E-04
  24.600000       0.79174416E-04
  24.650000       0.94122809E-04
  24.700000      -0.62026703E-04
  24.750000      -0.70564590E-04
  24.800000      -0.72758814E-04
  24.850000       0.60199197E-05
  24.900000      -0.24249627E-04
  24.950000       0.23962144E-04
